  #r(a)       PDF
  0.010     0.00000
  0.020     0.00000
  0.030     0.00000
  0.040     0.00000
  0.050     0.00000
  0.060     0.00000
  0.070     0.00000
  0.080     0.00000
  0.090     0.00000
  0.100     0.00000
  0.110     0.00000
  0.120     0.00000
  0.130     0.00000
  0.140     0.00000
  0.150     0.00000
  0.160     0.00000
  0.170     0.00000
  0.180     0.00000
  0.190     0.00000
  0.200     0.00000
  0.210     0.00000
  0.220     0.00000
  0.230     0.00000
  0.240     0.00000
  0.250     0.00000
  0.260     0.00000
  0.270     0.00000
  0.280     0.00000
  0.290     0.00000
  0.300     0.00000
  0.310     0.00000
  0.320     0.00000
  0.330     0.00000
  0.340     0.00000
  0.350     0.00000
  0.360     0.00000
  0.370     0.00000
  0.380     0.00000
  0.390     0.00000
  0.400     0.00000
  0.410     0.00000
  0.420     0.00000
  0.430     0.00000
  0.440     0.00000
  0.450     0.00000
  0.460     0.00000
  0.470     0.00000
  0.480     0.00000
  0.490     0.00000
  0.500     0.00000
  0.510     0.00000
  0.520     0.00000
  0.530     0.00000
  0.540     0.00000
  0.550     0.00000
  0.560     0.00000
  0.570     0.00000
  0.580     0.00000
  0.590     0.00000
  0.600     0.00000
  0.610     0.00000
  0.620     0.00000
  0.630     0.00000
  0.640     0.00000
  0.650     0.00000
  0.660     0.00000
  0.670     0.00000
  0.680     0.00000
  0.690     0.00000
  0.700     0.00000
  0.710     0.00000
  0.720     0.00000
  0.730     0.00000
  0.740     0.00000
  0.750     0.00000
  0.760     0.00000
  0.770     0.00000
  0.780     0.00000
  0.790     0.00000
  0.800     0.00000
  0.810     0.00000
  0.820     0.00000
  0.830     0.00000
  0.840     0.00000
  0.850     0.00000
  0.860     0.00000
  0.870     0.00000
  0.880     0.00000
  0.890     0.00000
  0.900     0.00000
  0.910     0.00000
  0.920     0.00000
  0.930     0.00000
  0.940     0.00000
  0.950     0.00000
  0.960     0.00000
  0.970     0.00000
  0.980     0.00000
  0.990     0.00000
  1.000     0.00000
  1.010     0.00000
  1.020     0.00000
  1.030     0.00000
  1.040     0.00000
  1.050     0.00000
  1.060     0.00000
  1.070     0.00000
  1.080     0.00000
  1.090     0.00000
  1.100     0.00000
  1.110     0.00000
  1.120     0.00000
  1.130     0.00000
  1.140     0.00000
  1.150     0.00000
  1.160     0.00000
  1.170     0.00000
  1.180     0.00000
  1.190     0.00000
  1.200     0.00000
  1.210     0.00000
  1.220     0.00000
  1.230     0.00000
  1.240     0.00000
  1.250     0.00000
  1.260     0.00000
  1.270     0.00000
  1.280     0.00000
  1.290     0.00000
  1.300     0.00000
  1.310     0.00000
  1.320     0.00000
  1.330     0.00000
  1.340     0.00000
  1.350     0.00000
  1.360     0.00000
  1.370     0.00000
  1.380     0.00000
  1.390     0.00000
  1.400     0.00000
  1.410     0.00000
  1.420     0.00000
  1.430     0.00000
  1.440     0.00000
  1.450     0.00000
  1.460     0.00000
  1.470     0.00000
  1.480     0.00000
  1.490     0.00000
  1.500     0.00000
  1.510     0.00000
  1.520     0.00000
  1.530     0.00000
  1.540     0.00000
  1.550     0.00000
  1.560     0.00000
  1.570     0.00000
  1.580     0.00000
  1.590     0.00000
  1.600     0.00000
  1.610     0.00000
  1.620     0.00000
  1.630     0.00000
  1.640     0.00000
  1.650     0.00000
  1.660     0.00000
  1.670     0.00000
  1.680     0.00000
  1.690     0.00000
  1.700     0.00000
  1.710     0.00000
  1.720     0.00000
  1.730     0.00000
  1.740     0.00000
  1.750     0.00000
  1.760     0.00000
  1.770     0.00000
  1.780     0.00000
  1.790     0.00000
  1.800     0.00000
  1.810     0.00000
  1.820     0.00000
  1.830     0.00000
  1.840     0.00000
  1.850     0.00000
  1.860     0.00000
  1.870     0.00000
  1.880     0.00000
  1.890     0.00000
  1.900     0.00000
  1.910     0.00000
  1.920     0.00000
  1.930     0.00000
  1.940     0.00000
  1.950     0.00000
  1.960     0.00000
  1.970     0.00000
  1.980     0.00000
  1.990     0.00000
  2.000     0.00000
  2.010     0.00000
  2.020     0.00000
  2.030     0.00000
  2.040     0.00000
  2.050     0.00000
  2.060     0.00000
  2.070     0.00000
  2.080     0.00000
  2.090     0.00000
  2.100     0.00000
  2.110     0.00000
  2.120     0.00000
  2.130     0.00000
  2.140     0.00000
  2.150     0.00000
  2.160     0.00000
  2.170     0.00000
  2.180     0.00000
  2.190     0.00000
  2.200     0.00000
  2.210     0.00000
  2.220     0.00000
  2.230     0.00000
  2.240     0.00000
  2.250     0.00000
  2.260     0.00000
  2.270     0.00000
  2.280     0.00019
  2.290     0.00038
  2.300     0.00038
  2.310     0.00038
  2.320     0.00019
  2.330     0.00047
  2.340     0.00056
  2.350     0.00084
  2.360     0.00102
  2.370     0.00064
  2.380     0.00147
  2.390     0.00283
  2.400     0.00291
  2.410     0.00371
  2.420     0.00324
  2.430     0.00502
  2.440     0.00465
  2.450     0.00757
  2.460     0.00825
  2.470     0.00927
  2.480     0.01302
  2.490     0.01550
  2.500     0.01675
  2.510     0.02059
  2.520     0.02216
  2.530     0.03017
  2.540     0.02980
  2.550     0.03413
  2.560     0.03817
  2.570     0.04328
  2.580     0.04641
  2.590     0.04573
  2.600     0.05167
  2.610     0.05373
  2.620     0.05469
  2.630     0.05888
  2.640     0.06213
  2.650     0.06495
  2.660     0.06330
  2.670     0.06454
  2.680     0.06316
  2.690     0.06552
  2.700     0.05962
  2.710     0.06101
  2.720     0.06367
  2.730     0.05617
  2.740     0.05556
  2.750     0.05441
  2.760     0.05382
  2.770     0.04543
  2.780     0.04606
  2.790     0.04144
  2.800     0.03381
  2.810     0.03346
  2.820     0.03102
  2.830     0.03060
  2.840     0.02665
  2.850     0.02120
  2.860     0.02189
  2.870     0.01915
  2.880     0.01613
  2.890     0.01562
  2.900     0.01203
  2.910     0.01132
  2.920     0.00979
  2.930     0.00804
  2.940     0.00816
  2.950     0.00643
  2.960     0.00597
  2.970     0.00676
  2.980     0.00498
  2.990     0.00321
  3.000     0.00444
  3.010     0.00312
  3.020     0.00282
  3.030     0.00223
  3.040     0.00194
  3.050     0.00200
  3.060     0.00185
  3.070     0.00142
  3.080     0.00128
  3.090     0.00141
  3.100     0.00120
  3.110     0.00098
  3.120     0.00126
  3.130     0.00091
  3.140     0.00083
  3.150     0.00118
  3.160     0.00083
  3.170     0.00069
  3.180     0.00062
  3.190     0.00062
  3.200     0.00082
  3.210     0.00082
  3.220     0.00054
  3.230     0.00034
  3.240     0.00040
  3.250     0.00054
  3.260     0.00060
  3.270     0.00080
  3.280     0.00086
  3.290     0.00040
  3.300     0.00059
  3.310     0.00040
  3.320     0.00026
  3.330     0.00020
  3.340     0.00033
  3.350     0.00052
  3.360     0.00058
  3.370     0.00052
  3.380     0.00045
  3.390     0.00051
  3.400     0.00083
  3.410     0.00070
  3.420     0.00102
  3.430     0.00083
  3.440     0.00082
  3.450     0.00152
  3.460     0.00164
  3.470     0.00126
  3.480     0.00150
  3.490     0.00225
  3.500     0.00199
  3.510     0.00205
  3.520     0.00260
  3.530     0.00247
  3.540     0.00283
  3.550     0.00362
  3.560     0.00411
  3.570     0.00483
  3.580     0.00524
  3.590     0.00456
  3.600     0.00545
  3.610     0.00647
  3.620     0.00729
  3.630     0.00775
  3.640     0.00767
  3.650     0.00783
  3.660     0.00959
  3.670     0.01206
  3.680     0.01203
  3.690     0.01099
  3.700     0.01267
  3.710     0.01387
  3.720     0.01278
  3.730     0.01567
  3.740     0.01452
  3.750     0.01710
  3.760     0.01543
  3.770     0.01759
  3.780     0.01650
  3.790     0.01761
  3.800     0.01791
  3.810     0.01975
  3.820     0.01953
  3.830     0.01999
  3.840     0.01897
  3.850     0.01909
  3.860     0.01684
  3.870     0.01719
  3.880     0.01428
  3.890     0.01497
  3.900     0.01381
  3.910     0.01255
  3.920     0.01402
  3.930     0.01254
  3.940     0.01185
  3.950     0.00983
  3.960     0.01074
  3.970     0.00917
  3.980     0.00718
  3.990     0.00809
  4.000     0.00703
  4.010     0.00609
  4.020     0.00662
  4.030     0.00574
  4.040     0.00583
  4.050     0.00431
  4.060     0.00398
  4.070     0.00429
  4.080     0.00385
  4.090     0.00299
  4.100     0.00314
  4.110     0.00292
  4.120     0.00291
  4.130     0.00195
  4.140     0.00221
  4.150     0.00152
  4.160     0.00142
  4.170     0.00235
  4.180     0.00110
  4.190     0.00276
  4.200     0.00182
  4.210     0.00166
  4.220     0.00165
  4.230     0.00217
  4.240     0.00170
  4.250     0.00180
  4.260     0.00179
  4.270     0.00220
  4.280     0.00224
  4.290     0.00280
  4.300     0.00294
  4.310     0.00380
  4.320     0.00414
  4.330     0.00489
  4.340     0.00487
  4.350     0.00461
  4.360     0.00645
  4.370     0.00659
  4.380     0.00847
  4.390     0.00835
  4.400     0.01071
  4.410     0.01335
  4.420     0.01125
  4.430     0.01413
  4.440     0.01631
  4.450     0.01750
  4.460     0.01863
  4.470     0.02093
  4.480     0.02176
  4.490     0.02604
  4.500     0.02860
  4.510     0.03076
  4.520     0.03276
  4.530     0.03563
  4.540     0.03714
  4.550     0.04147
  4.560     0.04377
  4.570     0.04491
  4.580     0.04800
  4.590     0.05056
  4.600     0.05211
  4.610     0.05271
  4.620     0.05387
  4.630     0.05370
  4.640     0.05523
  4.650     0.05474
  4.660     0.05533
  4.670     0.05740
  4.680     0.05803
  4.690     0.05809
  4.700     0.05560
  4.710     0.05585
  4.720     0.05204
  4.730     0.05100
  4.740     0.04942
  4.750     0.04932
  4.760     0.04482
  4.770     0.04289
  4.780     0.04002
  4.790     0.03811
  4.800     0.03640
  4.810     0.03333
  4.820     0.03050
  4.830     0.03039
  4.840     0.02605
  4.850     0.02420
  4.860     0.02262
  4.870     0.01921
  4.880     0.01877
  4.890     0.01472
  4.900     0.01460
  4.910     0.01462
  4.920     0.01219
  4.930     0.01102
  4.940     0.00932
  4.950     0.00925
  4.960     0.00858
  4.970     0.00768
  4.980     0.00587
  4.990     0.00691
  5.000     0.00550
  5.010     0.00583
  5.020     0.00526
  5.030     0.00520
  5.040     0.00532
  5.050     0.00428
  5.060     0.00522
  5.070     0.00508
  5.080     0.00477
  5.090     0.00489
  5.100     0.00513
  5.110     0.00461
  5.120     0.00554
  5.130     0.00604
  5.140     0.00704
  5.150     0.00775
  5.160     0.00723
  5.170     0.00877
  5.180     0.00968
  5.190     0.01004
  5.200     0.01191
  5.210     0.00963
  5.220     0.01308
  5.230     0.01255
  5.240     0.01449
  5.250     0.01616
  5.260     0.01742
  5.270     0.01858
  5.280     0.01900
  5.290     0.02037
  5.300     0.01889
  5.310     0.02025
  5.320     0.02316
  5.330     0.02369
  5.340     0.02247
  5.350     0.02434
  5.360     0.02450
  5.370     0.02498
  5.380     0.02307
  5.390     0.02404
  5.400     0.02302
  5.410     0.02234
  5.420     0.02346
  5.430     0.02398
  5.440     0.02129
  5.450     0.02069
  5.460     0.02173
  5.470     0.01858
  5.480     0.02006
  5.490     0.01994
  5.500     0.01844
  5.510     0.01477
  5.520     0.01517
  5.530     0.01424
  5.540     0.01374
  5.550     0.01328
  5.560     0.01118
  5.570     0.01163
  5.580     0.01012
  5.590     0.00905
  5.600     0.00841
  5.610     0.00863
  5.620     0.00784
  5.630     0.00740
  5.640     0.00688
  5.650     0.00726
  5.660     0.00698
  5.670     0.00627
  5.680     0.00718
  5.690     0.00655
  5.700     0.00540
  5.710     0.00791
  5.720     0.00766
  5.730     0.00788
  5.740     0.00718
  5.750     0.00948
  5.760     0.00886
  5.770     0.01096
  5.780     0.01094
  5.790     0.01341
  5.800     0.01388
  5.810     0.01367
  5.820     0.01698
  5.830     0.01706
  5.840     0.01699
  5.850     0.02084
  5.860     0.02062
  5.870     0.02285
  5.880     0.02411
  5.890     0.02577
  5.900     0.02658
  5.910     0.02919
  5.920     0.02933
  5.930     0.03380
  5.940     0.03459
  5.950     0.03306
  5.960     0.03565
  5.970     0.03646
  5.980     0.03957
  5.990     0.03867
  6.000     0.03981
  6.010     0.04014
  6.020     0.03971
  6.030     0.03907
  6.040     0.03857
  6.050     0.03908
  6.060     0.03700
  6.070     0.03654
  6.080     0.03595
  6.090     0.03596
  6.100     0.03619
  6.110     0.03559
  6.120     0.03076
  6.130     0.03192
  6.140     0.02938
  6.150     0.02922
  6.160     0.02705
  6.170     0.02316
  6.180     0.02259
  6.190     0.02178
  6.200     0.02135
  6.210     0.01985
  6.220     0.01848
  6.230     0.01747
  6.240     0.01559
  6.250     0.01567
  6.260     0.01230
  6.270     0.01172
  6.280     0.01139
  6.290     0.01058
  6.300     0.01018
  6.310     0.00996
  6.320     0.00953
  6.330     0.00748
  6.340     0.00778
  6.350     0.00756
  6.360     0.00785
  6.370     0.00794
  6.380     0.00817
  6.390     0.00727
  6.400     0.00808
  6.410     0.00837
  6.420     0.00900
  6.430     0.00784
  6.440     0.00806
  6.450     0.00937
  6.460     0.00922
  6.470     0.00937
  6.480     0.01043
  6.490     0.01042
  6.500     0.01023
  6.510     0.00995
  6.520     0.01131
  6.530     0.01152
  6.540     0.01134
  6.550     0.01219
  6.560     0.01230
  6.570     0.01182
  6.580     0.01273
  6.590     0.01218
  6.600     0.01385
  6.610     0.01313
  6.620     0.01328
  6.630     0.01253
  6.640     0.01232
  6.650     0.01250
  6.660     0.01254
  6.670     0.01423
  6.680     0.01247
  6.690     0.01170
  6.700     0.01143
  6.710     0.01183
  6.720     0.01155
  6.730     0.01128
  6.740     0.01126
  6.750     0.01050
  6.760     0.01226
  6.770     0.01070
  6.780     0.01174
  6.790     0.01102
  6.800     0.01164
  6.810     0.01211
  6.820     0.01276
  6.830     0.01392
  6.840     0.01531
  6.850     0.01516
  6.860     0.01577
  6.870     0.01607
  6.880     0.01915
  6.890     0.02083
  6.900     0.02292
  6.910     0.02487
  6.920     0.02660
  6.930     0.02754
  6.940     0.03105
  6.950     0.03336
  6.960     0.03407
  6.970     0.03546
  6.980     0.03812
  6.990     0.04222
  7.000     0.04415
  7.010     0.04568
  7.020     0.04915
  7.030     0.04874
  7.040     0.05264
  7.050     0.05553
  7.060     0.05487
  7.070     0.05964
  7.080     0.06091
  7.090     0.06002
  7.100     0.05834
  7.110     0.06246
  7.120     0.06194
  7.130     0.06336
  7.140     0.06177
  7.150     0.06361
  7.160     0.06382
  7.170     0.06127
  7.180     0.06173
  7.190     0.05946
  7.200     0.05723
  7.210     0.05409
  7.220     0.05326
  7.230     0.05153
  7.240     0.04896
  7.250     0.04708
  7.260     0.04618
  7.270     0.03948
  7.280     0.03835
  7.290     0.03677
  7.300     0.03394
  7.310     0.03097
  7.320     0.03057
  7.330     0.02925
  7.340     0.02541
  7.350     0.02398
  7.360     0.02131
  7.370     0.02143
  7.380     0.01829
  7.390     0.01747
  7.400     0.01716
  7.410     0.01590
  7.420     0.01502
  7.430     0.01444
  7.440     0.01325
  7.450     0.01338
  7.460     0.01260
  7.470     0.01127
  7.480     0.01035
  7.490     0.01072
  7.500     0.01000
  7.510     0.01153
  7.520     0.00969
  7.530     0.00996
  7.540     0.00946
  7.550     0.01040
  7.560     0.00877
  7.570     0.00968
  7.580     0.00858
  7.590     0.00882
  7.600     0.00939
  7.610     0.00937
  7.620     0.00953
  7.630     0.01009
  7.640     0.00934
  7.650     0.00975
  7.660     0.00928
  7.670     0.00930
  7.680     0.00934
  7.690     0.00964
  7.700     0.00949
  7.710     0.00973
  7.720     0.00856
  7.730     0.01016
  7.740     0.00981
  7.750     0.00872
  7.760     0.01037
  7.770     0.01039
  7.780     0.01091
  7.790     0.01210
  7.800     0.01102
  7.810     0.01304
  7.820     0.01367
  7.830     0.01290
  7.840     0.01427
  7.850     0.01553
  7.860     0.01712
  7.870     0.01818
  7.880     0.01924
  7.890     0.01910
  7.900     0.02057
  7.910     0.02253
  7.920     0.02379
  7.930     0.02511
  7.940     0.02643
  7.950     0.02804
  7.960     0.02946
  7.970     0.03079
  7.980     0.03023
  7.990     0.03388
  8.000     0.03539
  8.010     0.03502
  8.020     0.03650
  8.030     0.03515
  8.040     0.03641
  8.050     0.03677
  8.060     0.03970
  8.070     0.03724
  8.080     0.04009
  8.090     0.03955
  8.100     0.04028
  8.110     0.03970
  8.120     0.03777
  8.130     0.03775
  8.140     0.03668
  8.150     0.03739
  8.160     0.03657
  8.170     0.03479
  8.180     0.03642
  8.190     0.03369
  8.200     0.03248
  8.210     0.03270
  8.220     0.03245
  8.230     0.02947
  8.240     0.02912
  8.250     0.02914
  8.260     0.02905
  8.270     0.02685
  8.280     0.02647
  8.290     0.02594
  8.300     0.02378
  8.310     0.02572
  8.320     0.02477
  8.330     0.02443
  8.340     0.02205
  8.350     0.02307
  8.360     0.02223
  8.370     0.02322
  8.380     0.02350
  8.390     0.02392
  8.400     0.02503
  8.410     0.02495
  8.420     0.02477
  8.430     0.02414
  8.440     0.02610
  8.450     0.02429
  8.460     0.02519
  8.470     0.02519
  8.480     0.02593
  8.490     0.02682
  8.500     0.02520
  8.510     0.02776
  8.520     0.02862
  8.530     0.02872
  8.540     0.02592
  8.550     0.02413
  8.560     0.02625
  8.570     0.02543
  8.580     0.02420
  8.590     0.02473
  8.600     0.02597
  8.610     0.02505
  8.620     0.02495
  8.630     0.02335
  8.640     0.02312
  8.650     0.02146
  8.660     0.02184
  8.670     0.02123
  8.680     0.02113
  8.690     0.02169
  8.700     0.02184
  8.710     0.02204
  8.720     0.01946
  8.730     0.01986
  8.740     0.02076
  8.750     0.01917
  8.760     0.02039
  8.770     0.02077
  8.780     0.02072
  8.790     0.02122
  8.800     0.02099
  8.810     0.02109
  8.820     0.02095
  8.830     0.02295
  8.840     0.02268
  8.850     0.02208
  8.860     0.02386
  8.870     0.02395
  8.880     0.02297
  8.890     0.02397
  8.900     0.02571
  8.910     0.02509
  8.920     0.02362
  8.930     0.02521
  8.940     0.02608
  8.950     0.02574
  8.960     0.02503
  8.970     0.02456
  8.980     0.02665
  8.990     0.02395
  9.000     0.02428
  9.010     0.02418
  9.020     0.02387
  9.030     0.02362
  9.040     0.02393
  9.050     0.02290
  9.060     0.02133
  9.070     0.02169
  9.080     0.02359
  9.090     0.02162
  9.100     0.02057
  9.110     0.02253
  9.120     0.02152
  9.130     0.02124
  9.140     0.02081
  9.150     0.02088
  9.160     0.02269
  9.170     0.02107
  9.180     0.02172
  9.190     0.02181
  9.200     0.01930
  9.210     0.02004
  9.220     0.02143
  9.230     0.02295
  9.240     0.02330
  9.250     0.02403
  9.260     0.02560
  9.270     0.02393
  9.280     0.02548
  9.290     0.02562
  9.300     0.02589
  9.310     0.02486
  9.320     0.02530
  9.330     0.02747
  9.340     0.02623
  9.350     0.02645
  9.360     0.02668
  9.370     0.02791
  9.380     0.02818
  9.390     0.02778
  9.400     0.02852
  9.410     0.02895
  9.420     0.02955
  9.430     0.03014
  9.440     0.03202
  9.450     0.03284
  9.460     0.03189
  9.470     0.03499
  9.480     0.03244
  9.490     0.03700
  9.500     0.03582
  9.510     0.03839
  9.520     0.03771
  9.530     0.03884
  9.540     0.04264
  9.550     0.04230
  9.560     0.04360
  9.570     0.04647
  9.580     0.04640
  9.590     0.04751
  9.600     0.05008
  9.610     0.05154
  9.620     0.05333
  9.630     0.05298
  9.640     0.05503
  9.650     0.05526
  9.660     0.05726
  9.670     0.05704
  9.680     0.05615
  9.690     0.05830
  9.700     0.05880
  9.710     0.05962
  9.720     0.05868
  9.730     0.05719
  9.740     0.05901
  9.750     0.05868
  9.760     0.05701
  9.770     0.05644
  9.780     0.05386
  9.790     0.05459
  9.800     0.05364
  9.810     0.04914
  9.820     0.04815
  9.830     0.04646
  9.840     0.04546
  9.850     0.04305
  9.860     0.04090
  9.870     0.03781
  9.880     0.03601
  9.890     0.03423
  9.900     0.03349
  9.910     0.03110
  9.920     0.02797
  9.930     0.02680
  9.940     0.02550
  9.950     0.02433
  9.960     0.02225
  9.970     0.02087
  9.980     0.01952
  9.990     0.01751
