  #r(a)       PDF
  0.010     0.00000
  0.020     0.00000
  0.030     0.00000
  0.040     0.00000
  0.050     0.00000
  0.060     0.00000
  0.070     0.00000
  0.080     0.00000
  0.090     0.00000
  0.100     0.00000
  0.110     0.00000
  0.120     0.00000
  0.130     0.00000
  0.140     0.00000
  0.150     0.00000
  0.160     0.00000
  0.170     0.00000
  0.180     0.00000
  0.190     0.00000
  0.200     0.00000
  0.210     0.00000
  0.220     0.00000
  0.230     0.00000
  0.240     0.00000
  0.250     0.00000
  0.260     0.00000
  0.270     0.00000
  0.280     0.00000
  0.290     0.00000
  0.300     0.00000
  0.310     0.00000
  0.320     0.00000
  0.330     0.00000
  0.340     0.00000
  0.350     0.00000
  0.360     0.00000
  0.370     0.00000
  0.380     0.00000
  0.390     0.00000
  0.400     0.00000
  0.410     0.00000
  0.420     0.00000
  0.430     0.00000
  0.440     0.00000
  0.450     0.00000
  0.460     0.00000
  0.470     0.00000
  0.480     0.00000
  0.490     0.00000
  0.500     0.00000
  0.510     0.00000
  0.520     0.00000
  0.530     0.00000
  0.540     0.00000
  0.550     0.00000
  0.560     0.00000
  0.570     0.00000
  0.580     0.00000
  0.590     0.00000
  0.600     0.00000
  0.610     0.00000
  0.620     0.00000
  0.630     0.00000
  0.640     0.00000
  0.650     0.00000
  0.660     0.00000
  0.670     0.00000
  0.680     0.00000
  0.690     0.00000
  0.700     0.00000
  0.710     0.00000
  0.720     0.00000
  0.730     0.00000
  0.740     0.00000
  0.750     0.00000
  0.760     0.00000
  0.770     0.00000
  0.780     0.00000
  0.790     0.00000
  0.800     0.00000
  0.810     0.00000
  0.820     0.00000
  0.830     0.00000
  0.840     0.00000
  0.850     0.00000
  0.860     0.00000
  0.870     0.00000
  0.880     0.00000
  0.890     0.00000
  0.900     0.00000
  0.910     0.00000
  0.920     0.00000
  0.930     0.00000
  0.940     0.00000
  0.950     0.00000
  0.960     0.00000
  0.970     0.00000
  0.980     0.00000
  0.990     0.00000
  1.000     0.00000
  1.010     0.00000
  1.020     0.00000
  1.030     0.00000
  1.040     0.00000
  1.050     0.00000
  1.060     0.00000
  1.070     0.00000
  1.080     0.00000
  1.090     0.00000
  1.100     0.00000
  1.110     0.00000
  1.120     0.00000
  1.130     0.00000
  1.140     0.00000
  1.150     0.00000
  1.160     0.00000
  1.170     0.00000
  1.180     0.00000
  1.190     0.00000
  1.200     0.00000
  1.210     0.00000
  1.220     0.00000
  1.230     0.00000
  1.240     0.00000
  1.250     0.00000
  1.260     0.00000
  1.270     0.00000
  1.280     0.00000
  1.290     0.00000
  1.300     0.00000
  1.310     0.00000
  1.320     0.00000
  1.330     0.00000
  1.340     0.00000
  1.350     0.00000
  1.360     0.00000
  1.370     0.00000
  1.380     0.00000
  1.390     0.00000
  1.400     0.00000
  1.410     0.00000
  1.420     0.00000
  1.430     0.00000
  1.440     0.00000
  1.450     0.00000
  1.460     0.00000
  1.470     0.00000
  1.480     0.00000
  1.490     0.00000
  1.500     0.00000
  1.510     0.00000
  1.520     0.00000
  1.530     0.00000
  1.540     0.00000
  1.550     0.00000
  1.560     0.00000
  1.570     0.00000
  1.580     0.00000
  1.590     0.00000
  1.600     0.00000
  1.610     0.00000
  1.620     0.00000
  1.630     0.00000
  1.640     0.00000
  1.650     0.00000
  1.660     0.00000
  1.670     0.00000
  1.680     0.00000
  1.690     0.00000
  1.700     0.00000
  1.710     0.00000
  1.720     0.00000
  1.730     0.00000
  1.740     0.00000
  1.750     0.00000
  1.760     0.00000
  1.770     0.00000
  1.780     0.00000
  1.790     0.00000
  1.800     0.00000
  1.810     0.00000
  1.820     0.00000
  1.830     0.00000
  1.840     0.00000
  1.850     0.00000
  1.860     0.00000
  1.870     0.00000
  1.880     0.00000
  1.890     0.00000
  1.900     0.00000
  1.910     0.00000
  1.920     0.00000
  1.930     0.00000
  1.940     0.00000
  1.950     0.00000
  1.960     0.00000
  1.970     0.00000
  1.980     0.00000
  1.990     0.00000
  2.000     0.00000
  2.010     0.00000
  2.020     0.00000
  2.030     0.00000
  2.040     0.00000
  2.050     0.00000
  2.060     0.00000
  2.070     0.00000
  2.080     0.00000
  2.090     0.00000
  2.100     0.00000
  2.110     0.00000
  2.120     0.00000
  2.130     0.00000
  2.140     0.00000
  2.150     0.00010
  2.160     0.00000
  2.170     0.00000
  2.180     0.00000
  2.190     0.00000
  2.200     0.00010
  2.210     0.00020
  2.220     0.00020
  2.230     0.00010
  2.240     0.00000
  2.250     0.00000
  2.260     0.00000
  2.270     0.00010
  2.280     0.00048
  2.290     0.00048
  2.300     0.00048
  2.310     0.00019
  2.320     0.00019
  2.330     0.00056
  2.340     0.00075
  2.350     0.00167
  2.360     0.00167
  2.370     0.00231
  2.380     0.00193
  2.390     0.00219
  2.400     0.00219
  2.410     0.00381
  2.420     0.00461
  2.430     0.00495
  2.440     0.00717
  2.450     0.00946
  2.460     0.01013
  2.470     0.01106
  2.480     0.01314
  2.490     0.01651
  2.500     0.02003
  2.510     0.02291
  2.520     0.02473
  2.530     0.02878
  2.540     0.02996
  2.550     0.03524
  2.560     0.03561
  2.570     0.03692
  2.580     0.04432
  2.590     0.04643
  2.600     0.04651
  2.610     0.05102
  2.620     0.05124
  2.630     0.05737
  2.640     0.05674
  2.650     0.05850
  2.660     0.05910
  2.670     0.05978
  2.680     0.06046
  2.690     0.06015
  2.700     0.05831
  2.710     0.05737
  2.720     0.05499
  2.730     0.05206
  2.740     0.05235
  2.750     0.04533
  2.760     0.04983
  2.770     0.04673
  2.780     0.04373
  2.790     0.04232
  2.800     0.03975
  2.810     0.03416
  2.820     0.03195
  2.830     0.02735
  2.840     0.02856
  2.850     0.02624
  2.860     0.02447
  2.870     0.02286
  2.880     0.02263
  2.890     0.01778
  2.900     0.01576
  2.910     0.01480
  2.920     0.01191
  2.930     0.01142
  2.940     0.00915
  2.950     0.00778
  2.960     0.00827
  2.970     0.00714
  2.980     0.00565
  2.990     0.00607
  3.000     0.00568
  3.010     0.00559
  3.020     0.00398
  3.030     0.00296
  3.040     0.00367
  3.050     0.00280
  3.060     0.00250
  3.070     0.00271
  3.080     0.00234
  3.090     0.00191
  3.100     0.00176
  3.110     0.00232
  3.120     0.00182
  3.130     0.00119
  3.140     0.00153
  3.150     0.00139
  3.160     0.00104
  3.170     0.00097
  3.180     0.00083
  3.190     0.00062
  3.200     0.00034
  3.210     0.00054
  3.220     0.00075
  3.230     0.00102
  3.240     0.00034
  3.250     0.00067
  3.260     0.00067
  3.270     0.00047
  3.280     0.00047
  3.290     0.00080
  3.300     0.00066
  3.310     0.00040
  3.320     0.00066
  3.330     0.00039
  3.340     0.00072
  3.350     0.00078
  3.360     0.00052
  3.370     0.00097
  3.380     0.00078
  3.390     0.00084
  3.400     0.00103
  3.410     0.00135
  3.420     0.00058
  3.430     0.00083
  3.440     0.00064
  3.450     0.00152
  3.460     0.00171
  3.470     0.00151
  3.480     0.00113
  3.490     0.00269
  3.500     0.00187
  3.510     0.00193
  3.520     0.00292
  3.530     0.00396
  3.540     0.00303
  3.550     0.00456
  3.560     0.00442
  3.570     0.00465
  3.580     0.00403
  3.590     0.00591
  3.600     0.00705
  3.610     0.00666
  3.620     0.00652
  3.630     0.00735
  3.640     0.00763
  3.650     0.00773
  3.660     0.00890
  3.670     0.01102
  3.680     0.00927
  3.690     0.01173
  3.700     0.01152
  3.710     0.01149
  3.720     0.01205
  3.730     0.01278
  3.740     0.01520
  3.750     0.01516
  3.760     0.01489
  3.770     0.01467
  3.780     0.01521
  3.790     0.01748
  3.800     0.01576
  3.810     0.01595
  3.820     0.01557
  3.830     0.01741
  3.840     0.01851
  3.850     0.01567
  3.860     0.01609
  3.870     0.01537
  3.880     0.01572
  3.890     0.01675
  3.900     0.01486
  3.910     0.01387
  3.920     0.01149
  3.930     0.01124
  3.940     0.01154
  3.950     0.01151
  3.960     0.01126
  3.970     0.01140
  3.980     0.01033
  3.990     0.00844
  4.000     0.00869
  4.010     0.00889
  4.020     0.00669
  4.030     0.00743
  4.040     0.00682
  4.050     0.00545
  4.060     0.00544
  4.070     0.00564
  4.080     0.00466
  4.090     0.00481
  4.100     0.00373
  4.110     0.00362
  4.120     0.00292
  4.130     0.00238
  4.140     0.00290
  4.150     0.00269
  4.160     0.00200
  4.170     0.00257
  4.180     0.00251
  4.190     0.00136
  4.200     0.00260
  4.210     0.00286
  4.220     0.00244
  4.230     0.00207
  4.240     0.00273
  4.250     0.00190
  4.260     0.00226
  4.270     0.00271
  4.280     0.00174
  4.290     0.00362
  4.300     0.00330
  4.310     0.00350
  4.320     0.00430
  4.330     0.00424
  4.340     0.00489
  4.350     0.00689
  4.360     0.00853
  4.370     0.00806
  4.380     0.00859
  4.390     0.00911
  4.400     0.00979
  4.410     0.01274
  4.420     0.01296
  4.430     0.01446
  4.440     0.01660
  4.450     0.01813
  4.460     0.01956
  4.470     0.02094
  4.480     0.02245
  4.490     0.02449
  4.500     0.02721
  4.510     0.02851
  4.520     0.03135
  4.530     0.03026
  4.540     0.03463
  4.550     0.03537
  4.560     0.03989
  4.570     0.04488
  4.580     0.04378
  4.590     0.04373
  4.600     0.04587
  4.610     0.04696
  4.620     0.05083
  4.630     0.05030
  4.640     0.05099
  4.650     0.05360
  4.660     0.05222
  4.670     0.05305
  4.680     0.05326
  4.690     0.05203
  4.700     0.05215
  4.710     0.05292
  4.720     0.05142
  4.730     0.04831
  4.740     0.04880
  4.750     0.04474
  4.760     0.04561
  4.770     0.04254
  4.780     0.04186
  4.790     0.03789
  4.800     0.03489
  4.810     0.03591
  4.820     0.03361
  4.830     0.03241
  4.840     0.02928
  4.850     0.02642
  4.860     0.02425
  4.870     0.02434
  4.880     0.02267
  4.890     0.01860
  4.900     0.01901
  4.910     0.01701
  4.920     0.01538
  4.930     0.01557
  4.940     0.01257
  4.950     0.01246
  4.960     0.01036
  4.970     0.01104
  4.980     0.00922
  4.990     0.00885
  5.000     0.00813
  5.010     0.00790
  5.020     0.00754
  5.030     0.00652
  5.040     0.00573
  5.050     0.00723
  5.060     0.00519
  5.070     0.00656
  5.080     0.00620
  5.090     0.00533
  5.100     0.00506
  5.110     0.00697
  5.120     0.00645
  5.130     0.00806
  5.140     0.00608
  5.150     0.00760
  5.160     0.00843
  5.170     0.00909
  5.180     0.00886
  5.190     0.00977
  5.200     0.01072
  5.210     0.01204
  5.220     0.01315
  5.230     0.01300
  5.240     0.01465
  5.250     0.01474
  5.260     0.01422
  5.270     0.01577
  5.280     0.01735
  5.290     0.01963
  5.300     0.01774
  5.310     0.01931
  5.320     0.02014
  5.330     0.02018
  5.340     0.02133
  5.350     0.02011
  5.360     0.02129
  5.370     0.02402
  5.380     0.02130
  5.390     0.02150
  5.400     0.02162
  5.410     0.02178
  5.420     0.02287
  5.430     0.02150
  5.440     0.02231
  5.450     0.02114
  5.460     0.02131
  5.470     0.02031
  5.480     0.01847
  5.490     0.01876
  5.500     0.01769
  5.510     0.01651
  5.520     0.01676
  5.530     0.01526
  5.540     0.01516
  5.550     0.01379
  5.560     0.01455
  5.570     0.01256
  5.580     0.01207
  5.590     0.01005
  5.600     0.01066
  5.610     0.00885
  5.620     0.00903
  5.630     0.00870
  5.640     0.00899
  5.650     0.00867
  5.660     0.00827
  5.670     0.00845
  5.680     0.00878
  5.690     0.00780
  5.700     0.00921
  5.710     0.00892
  5.720     0.00822
  5.730     0.00824
  5.740     0.00842
  5.750     0.00890
  5.760     0.01029
  5.770     0.01182
  5.780     0.01176
  5.790     0.01174
  5.800     0.01335
  5.810     0.01389
  5.820     0.01608
  5.830     0.01605
  5.840     0.01681
  5.850     0.01716
  5.860     0.01918
  5.870     0.02015
  5.880     0.02190
  5.890     0.02350
  5.900     0.02409
  5.910     0.02471
  5.920     0.02678
  5.930     0.02961
  5.940     0.02974
  5.950     0.02973
  5.960     0.03173
  5.970     0.03197
  5.980     0.03360
  5.990     0.03428
  6.000     0.03564
  6.010     0.03467
  6.020     0.03563
  6.030     0.03800
  6.040     0.03812
  6.050     0.03719
  6.060     0.03814
  6.070     0.03516
  6.080     0.03672
  6.090     0.03569
  6.100     0.03394
  6.110     0.03582
  6.120     0.03151
  6.130     0.03075
  6.140     0.03144
  6.150     0.03132
  6.160     0.02868
  6.170     0.02693
  6.180     0.02505
  6.190     0.02455
  6.200     0.02225
  6.210     0.02102
  6.220     0.02183
  6.230     0.01906
  6.240     0.01850
  6.250     0.01854
  6.260     0.01712
  6.270     0.01534
  6.280     0.01414
  6.290     0.01380
  6.300     0.01399
  6.310     0.01112
  6.320     0.01124
  6.330     0.01154
  6.340     0.00983
  6.350     0.00968
  6.360     0.00963
  6.370     0.00841
  6.380     0.00860
  6.390     0.00862
  6.400     0.00940
  6.410     0.00907
  6.420     0.00875
  6.430     0.00833
  6.440     0.00893
  6.450     0.00922
  6.460     0.00931
  6.470     0.01004
  6.480     0.01019
  6.490     0.01017
  6.500     0.01033
  6.510     0.01061
  6.520     0.01087
  6.530     0.01058
  6.540     0.01013
  6.550     0.01062
  6.560     0.01247
  6.570     0.01105
  6.580     0.01203
  6.590     0.01214
  6.600     0.01269
  6.610     0.01264
  6.620     0.01311
  6.630     0.01171
  6.640     0.01334
  6.650     0.01292
  6.660     0.01280
  6.670     0.01328
  6.680     0.01038
  6.690     0.01298
  6.700     0.01132
  6.710     0.01147
  6.720     0.01175
  6.730     0.01095
  6.740     0.01077
  6.750     0.01176
  6.760     0.01148
  6.770     0.01237
  6.780     0.01206
  6.790     0.01307
  6.800     0.01376
  6.810     0.01255
  6.820     0.01452
  6.830     0.01453
  6.840     0.01470
  6.850     0.01660
  6.860     0.01715
  6.870     0.01789
  6.880     0.01716
  6.890     0.01901
  6.900     0.02180
  6.910     0.02300
  6.920     0.02401
  6.930     0.02735
  6.940     0.02999
  6.950     0.03020
  6.960     0.03201
  6.970     0.03278
  6.980     0.03721
  6.990     0.03644
  7.000     0.03873
  7.010     0.04164
  7.020     0.04385
  7.030     0.04389
  7.040     0.04836
  7.050     0.05127
  7.060     0.05194
  7.070     0.05490
  7.080     0.05488
  7.090     0.05505
  7.100     0.05491
  7.110     0.05588
  7.120     0.05694
  7.130     0.05830
  7.140     0.05754
  7.150     0.05927
  7.160     0.05869
  7.170     0.05764
  7.180     0.05941
  7.190     0.05495
  7.200     0.05554
  7.210     0.05435
  7.220     0.05427
  7.230     0.05250
  7.240     0.04865
  7.250     0.04678
  7.260     0.04647
  7.270     0.04475
  7.280     0.04238
  7.290     0.03896
  7.300     0.03927
  7.310     0.03927
  7.320     0.03337
  7.330     0.03299
  7.340     0.02970
  7.350     0.02823
  7.360     0.02647
  7.370     0.02557
  7.380     0.02344
  7.390     0.02252
  7.400     0.02113
  7.410     0.01936
  7.420     0.01818
  7.430     0.01804
  7.440     0.01722
  7.450     0.01585
  7.460     0.01369
  7.470     0.01516
  7.480     0.01272
  7.490     0.01270
  7.500     0.01131
  7.510     0.01173
  7.520     0.01215
  7.530     0.01286
  7.540     0.01195
  7.550     0.00988
  7.560     0.00954
  7.570     0.00916
  7.580     0.00937
  7.590     0.00954
  7.600     0.00912
  7.610     0.00963
  7.620     0.01056
  7.630     0.00974
  7.640     0.00910
  7.650     0.00929
  7.660     0.00968
  7.670     0.00952
  7.680     0.00985
  7.690     0.00984
  7.700     0.01014
  7.710     0.00964
  7.720     0.01008
  7.730     0.00979
  7.740     0.00997
  7.750     0.01004
  7.760     0.01136
  7.770     0.01126
  7.780     0.01138
  7.790     0.01179
  7.800     0.01217
  7.810     0.01285
  7.820     0.01350
  7.830     0.01254
  7.840     0.01286
  7.850     0.01409
  7.860     0.01600
  7.870     0.01561
  7.880     0.01840
  7.890     0.01729
  7.900     0.02020
  7.910     0.02112
  7.920     0.02120
  7.930     0.02109
  7.940     0.02503
  7.950     0.02478
  7.960     0.02486
  7.970     0.02664
  7.980     0.02792
  7.990     0.02972
  8.000     0.02903
  8.010     0.03224
  8.020     0.03184
  8.030     0.03447
  8.040     0.03533
  8.050     0.03604
  8.060     0.03619
  8.070     0.03777
  8.080     0.03521
  8.090     0.03611
  8.100     0.03631
  8.110     0.03831
  8.120     0.03743
  8.130     0.03784
  8.140     0.03739
  8.150     0.03903
  8.160     0.03682
  8.170     0.03498
  8.180     0.03528
  8.190     0.03489
  8.200     0.03480
  8.210     0.03244
  8.220     0.03264
  8.230     0.03119
  8.240     0.03341
  8.250     0.02913
  8.260     0.03042
  8.270     0.02808
  8.280     0.03042
  8.290     0.02593
  8.300     0.02663
  8.310     0.02589
  8.320     0.02581
  8.330     0.02554
  8.340     0.02546
  8.350     0.02488
  8.360     0.02438
  8.370     0.02416
  8.380     0.02541
  8.390     0.02429
  8.400     0.02499
  8.410     0.02327
  8.420     0.02415
  8.430     0.02368
  8.440     0.02430
  8.450     0.02546
  8.460     0.02510
  8.470     0.02463
  8.480     0.02573
  8.490     0.02611
  8.500     0.02619
  8.510     0.02500
  8.520     0.02600
  8.530     0.02615
  8.540     0.02622
  8.550     0.02570
  8.560     0.02605
  8.570     0.02620
  8.580     0.02474
  8.590     0.02507
  8.600     0.02642
  8.610     0.02471
  8.620     0.02542
  8.630     0.02458
  8.640     0.02313
  8.650     0.02336
  8.660     0.02358
  8.670     0.02328
  8.680     0.02368
  8.690     0.02343
  8.700     0.02224
  8.710     0.02204
  8.720     0.02099
  8.730     0.02227
  8.740     0.02114
  8.750     0.02157
  8.760     0.02067
  8.770     0.02149
  8.780     0.02052
  8.790     0.02134
  8.800     0.02246
  8.810     0.02164
  8.820     0.02266
  8.830     0.02261
  8.840     0.02182
  8.850     0.02132
  8.860     0.02243
  8.870     0.02260
  8.880     0.02164
  8.890     0.02307
  8.900     0.02327
  8.910     0.02317
  8.920     0.02395
  8.930     0.02378
  8.940     0.02485
  8.950     0.02480
  8.960     0.02350
  8.970     0.02501
  8.980     0.02330
  8.990     0.02474
  9.000     0.02456
  9.010     0.02509
  9.020     0.02417
  9.030     0.02339
  9.040     0.02409
  9.050     0.02344
  9.060     0.02300
  9.070     0.02396
  9.080     0.02242
  9.090     0.02199
  9.100     0.02218
  9.110     0.02122
  9.120     0.02275
  9.130     0.02131
  9.140     0.02093
  9.150     0.02110
  9.160     0.02074
  9.170     0.02117
  9.180     0.02108
  9.190     0.02129
  9.200     0.02160
  9.210     0.02153
  9.220     0.02381
  9.230     0.02201
  9.240     0.02269
  9.250     0.02279
  9.260     0.02312
  9.270     0.02415
  9.280     0.02326
  9.290     0.02387
  9.300     0.02589
  9.310     0.02482
  9.320     0.02595
  9.330     0.02496
  9.340     0.02643
  9.350     0.02596
  9.360     0.02717
  9.370     0.02728
  9.380     0.02839
  9.390     0.02699
  9.400     0.02610
  9.410     0.02828
  9.420     0.02904
  9.430     0.02917
  9.440     0.02976
  9.450     0.03140
  9.460     0.03199
  9.470     0.02999
  9.480     0.03388
  9.490     0.03364
  9.500     0.03422
  9.510     0.03630
  9.520     0.03831
  9.530     0.03699
  9.540     0.03919
  9.550     0.04085
  9.560     0.03927
  9.570     0.04177
  9.580     0.04394
  9.590     0.04501
  9.600     0.04478
  9.610     0.04701
  9.620     0.04932
  9.630     0.04730
  9.640     0.04881
  9.650     0.05107
  9.660     0.05163
  9.670     0.05395
  9.680     0.05365
  9.690     0.05445
  9.700     0.05789
  9.710     0.05569
  9.720     0.05502
  9.730     0.05521
  9.740     0.05808
  9.750     0.05734
  9.760     0.05652
  9.770     0.05635
  9.780     0.05612
  9.790     0.05514
  9.800     0.05225
  9.810     0.05289
  9.820     0.05157
  9.830     0.05169
  9.840     0.04777
  9.850     0.04562
  9.860     0.04553
  9.870     0.04446
  9.880     0.04254
  9.890     0.03999
  9.900     0.03741
  9.910     0.03698
  9.920     0.03399
  9.930     0.03395
  9.940     0.03093
  9.950     0.02859
  9.960     0.02568
  9.970     0.02494
  9.980     0.02357
  9.990     0.02119
