  #r(a)       PDF
  0.010     0.00000
  0.020     0.00000
  0.030     0.00000
  0.040     0.00000
  0.050     0.00000
  0.060     0.00000
  0.070     0.00000
  0.080     0.00000
  0.090     0.00000
  0.100     0.00000
  0.110     0.00000
  0.120     0.00000
  0.130     0.00000
  0.140     0.00000
  0.150     0.00000
  0.160     0.00000
  0.170     0.00000
  0.180     0.00000
  0.190     0.00000
  0.200     0.00000
  0.210     0.00000
  0.220     0.00000
  0.230     0.00000
  0.240     0.00000
  0.250     0.00000
  0.260     0.00000
  0.270     0.00000
  0.280     0.00000
  0.290     0.00000
  0.300     0.00000
  0.310     0.00000
  0.320     0.00000
  0.330     0.00000
  0.340     0.00000
  0.350     0.00000
  0.360     0.00000
  0.370     0.00000
  0.380     0.00000
  0.390     0.00000
  0.400     0.00000
  0.410     0.00000
  0.420     0.00000
  0.430     0.00000
  0.440     0.00000
  0.450     0.00000
  0.460     0.00000
  0.470     0.00000
  0.480     0.00000
  0.490     0.00000
  0.500     0.00000
  0.510     0.00000
  0.520     0.00000
  0.530     0.00000
  0.540     0.00000
  0.550     0.00000
  0.560     0.00000
  0.570     0.00000
  0.580     0.00000
  0.590     0.00000
  0.600     0.00000
  0.610     0.00000
  0.620     0.00000
  0.630     0.00000
  0.640     0.00000
  0.650     0.00000
  0.660     0.00000
  0.670     0.00000
  0.680     0.00000
  0.690     0.00000
  0.700     0.00000
  0.710     0.00000
  0.720     0.00000
  0.730     0.00000
  0.740     0.00000
  0.750     0.00000
  0.760     0.00000
  0.770     0.00000
  0.780     0.00000
  0.790     0.00000
  0.800     0.00000
  0.810     0.00000
  0.820     0.00000
  0.830     0.00000
  0.840     0.00000
  0.850     0.00000
  0.860     0.00000
  0.870     0.00000
  0.880     0.00000
  0.890     0.00000
  0.900     0.00000
  0.910     0.00000
  0.920     0.00000
  0.930     0.00000
  0.940     0.00000
  0.950     0.00000
  0.960     0.00000
  0.970     0.00000
  0.980     0.00000
  0.990     0.00000
  1.000     0.00000
  1.010     0.00000
  1.020     0.00000
  1.030     0.00000
  1.040     0.00000
  1.050     0.00000
  1.060     0.00000
  1.070     0.00000
  1.080     0.00000
  1.090     0.00000
  1.100     0.00000
  1.110     0.00000
  1.120     0.00000
  1.130     0.00000
  1.140     0.00000
  1.150     0.00000
  1.160     0.00000
  1.170     0.00000
  1.180     0.00000
  1.190     0.00000
  1.200     0.00000
  1.210     0.00000
  1.220     0.00000
  1.230     0.00000
  1.240     0.00000
  1.250     0.00000
  1.260     0.00000
  1.270     0.00000
  1.280     0.00000
  1.290     0.00000
  1.300     0.00000
  1.310     0.00000
  1.320     0.00000
  1.330     0.00000
  1.340     0.00000
  1.350     0.00000
  1.360     0.00000
  1.370     0.00000
  1.380     0.00000
  1.390     0.00000
  1.400     0.00000
  1.410     0.00000
  1.420     0.00000
  1.430     0.00000
  1.440     0.00000
  1.450     0.00000
  1.460     0.00000
  1.470     0.00000
  1.480     0.00000
  1.490     0.00000
  1.500     0.00000
  1.510     0.00000
  1.520     0.00000
  1.530     0.00000
  1.540     0.00000
  1.550     0.00000
  1.560     0.00000
  1.570     0.00000
  1.580     0.00000
  1.590     0.00000
  1.600     0.00000
  1.610     0.00000
  1.620     0.00000
  1.630     0.00000
  1.640     0.00000
  1.650     0.00000
  1.660     0.00000
  1.670     0.00000
  1.680     0.00000
  1.690     0.00000
  1.700     0.00000
  1.710     0.00000
  1.720     0.00000
  1.730     0.00000
  1.740     0.00000
  1.750     0.00000
  1.760     0.00000
  1.770     0.00000
  1.780     0.00000
  1.790     0.00000
  1.800     0.00000
  1.810     0.00000
  1.820     0.00000
  1.830     0.00000
  1.840     0.00000
  1.850     0.00000
  1.860     0.00000
  1.870     0.00000
  1.880     0.00000
  1.890     0.00000
  1.900     0.00000
  1.910     0.00000
  1.920     0.00000
  1.930     0.00000
  1.940     0.00000
  1.950     0.00000
  1.960     0.00000
  1.970     0.00000
  1.980     0.00000
  1.990     0.00000
  2.000     0.00000
  2.010     0.00000
  2.020     0.00000
  2.030     0.00000
  2.040     0.00000
  2.050     0.00000
  2.060     0.00000
  2.070     0.00000
  2.080     0.00000
  2.090     0.00000
  2.100     0.00000
  2.110     0.00000
  2.120     0.00000
  2.130     0.00000
  2.140     0.00000
  2.150     0.00000
  2.160     0.00000
  2.170     0.00000
  2.180     0.00000
  2.190     0.00000
  2.200     0.00000
  2.210     0.00015
  2.220     0.00014
  2.230     0.00000
  2.240     0.00000
  2.250     0.00000
  2.260     0.00014
  2.270     0.00000
  2.280     0.00014
  2.290     0.00028
  2.300     0.00042
  2.310     0.00000
  2.320     0.00041
  2.330     0.00027
  2.340     0.00055
  2.350     0.00055
  2.360     0.00054
  2.370     0.00081
  2.380     0.00162
  2.390     0.00201
  2.400     0.00187
  2.410     0.00266
  2.420     0.00345
  2.430     0.00488
  2.440     0.00605
  2.450     0.00681
  2.460     0.00782
  2.470     0.00935
  2.480     0.01138
  2.490     0.01469
  2.500     0.01976
  2.510     0.01699
  2.520     0.01934
  2.530     0.02142
  2.540     0.02753
  2.550     0.02956
  2.560     0.03470
  2.570     0.03707
  2.580     0.03829
  2.590     0.04074
  2.600     0.04490
  2.610     0.04743
  2.620     0.04848
  2.630     0.05244
  2.640     0.05637
  2.650     0.05761
  2.660     0.05969
  2.670     0.06367
  2.680     0.05817
  2.690     0.06069
  2.700     0.06426
  2.710     0.05741
  2.720     0.05801
  2.730     0.05780
  2.740     0.05888
  2.750     0.05610
  2.760     0.05415
  2.770     0.05349
  2.780     0.04649
  2.790     0.04576
  2.800     0.04444
  2.810     0.04178
  2.820     0.04333
  2.830     0.03695
  2.840     0.03366
  2.850     0.03163
  2.860     0.02994
  2.870     0.02961
  2.880     0.02550
  2.890     0.02231
  2.900     0.01980
  2.910     0.02083
  2.920     0.01900
  2.930     0.01773
  2.940     0.01407
  2.950     0.01446
  2.960     0.01301
  2.970     0.01296
  2.980     0.01109
  2.990     0.01008
  3.000     0.00898
  3.010     0.00693
  3.020     0.00669
  3.030     0.00646
  3.040     0.00528
  3.050     0.00494
  3.060     0.00461
  3.070     0.00481
  3.080     0.00510
  3.090     0.00415
  3.100     0.00362
  3.110     0.00144
  3.120     0.00267
  3.130     0.00256
  3.140     0.00296
  3.150     0.00193
  3.160     0.00203
  3.170     0.00152
  3.180     0.00182
  3.190     0.00211
  3.200     0.00160
  3.210     0.00170
  3.220     0.00149
  3.230     0.00199
  3.240     0.00188
  3.250     0.00118
  3.260     0.00108
  3.270     0.00216
  3.280     0.00088
  3.290     0.00166
  3.300     0.00146
  3.310     0.00165
  3.320     0.00135
  3.330     0.00125
  3.340     0.00115
  3.350     0.00134
  3.360     0.00210
  3.370     0.00162
  3.380     0.00209
  3.390     0.00180
  3.400     0.00189
  3.410     0.00216
  3.420     0.00263
  3.430     0.00243
  3.440     0.00187
  3.450     0.00316
  3.460     0.00222
  3.470     0.00259
  3.480     0.00267
  3.490     0.00257
  3.500     0.00348
  3.510     0.00411
  3.520     0.00428
  3.530     0.00300
  3.540     0.00290
  3.550     0.00389
  3.560     0.00342
  3.570     0.00503
  3.580     0.00519
  3.590     0.00438
  3.600     0.00579
  3.610     0.00569
  3.620     0.00567
  3.630     0.00618
  3.640     0.00749
  3.650     0.00852
  3.660     0.00771
  3.670     0.00909
  3.680     0.01063
  3.690     0.01008
  3.700     0.01075
  3.710     0.01115
  3.720     0.01138
  3.730     0.01058
  3.740     0.01106
  3.750     0.01223
  3.760     0.01339
  3.770     0.01285
  3.780     0.01417
  3.790     0.01523
  3.800     0.01393
  3.810     0.01238
  3.820     0.01402
  3.830     0.01692
  3.840     0.01495
  3.850     0.01408
  3.860     0.01396
  3.870     0.01649
  3.880     0.01521
  3.890     0.01484
  3.900     0.01414
  3.910     0.01509
  3.920     0.01317
  3.930     0.01289
  3.940     0.01384
  3.950     0.01267
  3.960     0.01247
  3.970     0.01091
  3.980     0.01193
  3.990     0.01085
  4.000     0.01059
  4.010     0.01016
  4.020     0.00973
  4.030     0.00923
  4.040     0.00865
  4.050     0.00895
  4.060     0.00822
  4.070     0.01017
  4.080     0.00739
  4.090     0.00596
  4.100     0.00743
  4.110     0.00655
  4.120     0.00584
  4.130     0.00621
  4.140     0.00628
  4.150     0.00533
  4.160     0.00447
  4.170     0.00662
  4.180     0.00529
  4.190     0.00513
  4.200     0.00542
  4.210     0.00457
  4.220     0.00418
  4.230     0.00394
  4.240     0.00537
  4.250     0.00408
  4.260     0.00497
  4.270     0.00473
  4.280     0.00540
  4.290     0.00516
  4.300     0.00522
  4.310     0.00685
  4.320     0.00609
  4.330     0.00556
  4.340     0.00584
  4.350     0.00700
  4.360     0.00691
  4.370     0.00917
  4.380     0.00923
  4.390     0.00906
  4.400     0.01057
  4.410     0.01142
  4.420     0.01314
  4.430     0.01267
  4.440     0.01430
  4.450     0.01463
  4.460     0.01819
  4.470     0.01866
  4.480     0.02012
  4.490     0.02264
  4.500     0.02288
  4.510     0.02596
  4.520     0.02597
  4.530     0.02471
  4.540     0.02819
  4.550     0.03031
  4.560     0.03341
  4.570     0.03537
  4.580     0.03565
  4.590     0.03592
  4.600     0.03988
  4.610     0.04126
  4.620     0.04283
  4.630     0.04434
  4.640     0.04417
  4.650     0.04863
  4.660     0.04488
  4.670     0.05027
  4.680     0.04365
  4.690     0.04780
  4.700     0.04613
  4.710     0.04808
  4.720     0.04777
  4.730     0.04937
  4.740     0.04635
  4.750     0.04814
  4.760     0.04616
  4.770     0.04499
  4.780     0.04335
  4.790     0.04426
  4.800     0.03795
  4.810     0.04228
  4.820     0.04072
  4.830     0.03825
  4.840     0.03459
  4.850     0.03531
  4.860     0.03339
  4.870     0.03346
  4.880     0.03063
  4.890     0.02860
  4.900     0.02808
  4.910     0.02528
  4.920     0.02510
  4.930     0.02114
  4.940     0.01935
  4.950     0.02352
  4.960     0.01966
  4.970     0.01575
  4.980     0.01539
  4.990     0.01774
  5.000     0.01424
  5.010     0.01415
  5.020     0.01240
  5.030     0.01333
  5.040     0.01184
  5.050     0.01073
  5.060     0.01103
  5.070     0.00993
  5.080     0.01118
  5.090     0.01002
  5.100     0.00950
  5.110     0.01023
  5.120     0.01021
  5.130     0.01107
  5.140     0.00899
  5.150     0.01015
  5.160     0.01169
  5.170     0.01390
  5.180     0.01195
  5.190     0.01094
  5.200     0.01166
  5.210     0.01342
  5.220     0.01290
  5.230     0.01588
  5.240     0.01328
  5.250     0.01411
  5.260     0.01451
  5.270     0.01564
  5.280     0.01658
  5.290     0.01722
  5.300     0.01918
  5.310     0.01909
  5.320     0.01917
  5.330     0.02130
  5.340     0.02090
  5.350     0.02062
  5.360     0.02202
  5.370     0.02180
  5.380     0.01944
  5.390     0.02130
  5.400     0.02263
  5.410     0.02330
  5.420     0.02160
  5.430     0.02374
  5.440     0.02140
  5.450     0.02266
  5.460     0.02109
  5.470     0.01900
  5.480     0.02218
  5.490     0.02010
  5.500     0.02058
  5.510     0.02043
  5.520     0.02109
  5.530     0.01960
  5.540     0.01772
  5.550     0.01728
  5.560     0.01592
  5.570     0.01768
  5.580     0.01466
  5.590     0.01589
  5.600     0.01569
  5.610     0.01389
  5.620     0.01353
  5.630     0.01407
  5.640     0.01217
  5.650     0.01255
  5.660     0.01122
  5.670     0.01369
  5.680     0.01203
  5.690     0.01212
  5.700     0.01176
  5.710     0.01180
  5.720     0.01206
  5.730     0.01310
  5.740     0.01073
  5.750     0.01171
  5.760     0.01214
  5.770     0.01140
  5.780     0.01104
  5.790     0.01235
  5.800     0.01537
  5.810     0.01253
  5.820     0.01565
  5.830     0.01491
  5.840     0.01532
  5.850     0.01590
  5.860     0.01582
  5.870     0.01699
  5.880     0.01876
  5.890     0.01900
  5.900     0.02093
  5.910     0.01813
  5.920     0.02346
  5.930     0.02180
  5.940     0.02446
  5.950     0.02507
  5.960     0.02459
  5.970     0.02831
  5.980     0.02741
  5.990     0.02656
  6.000     0.02812
  6.010     0.03143
  6.020     0.03074
  6.030     0.02931
  6.040     0.03022
  6.050     0.03144
  6.060     0.03038
  6.070     0.03091
  6.080     0.03292
  6.090     0.03207
  6.100     0.03128
  6.110     0.03155
  6.120     0.03333
  6.130     0.03035
  6.140     0.03349
  6.150     0.02837
  6.160     0.02739
  6.170     0.02911
  6.180     0.02787
  6.190     0.02814
  6.200     0.02742
  6.210     0.02877
  6.220     0.02516
  6.230     0.02482
  6.240     0.02411
  6.250     0.02191
  6.260     0.02075
  6.270     0.02220
  6.280     0.01946
  6.290     0.02101
  6.300     0.01940
  6.310     0.01779
  6.320     0.01837
  6.330     0.01647
  6.340     0.01594
  6.350     0.01571
  6.360     0.01498
  6.370     0.01450
  6.380     0.01518
  6.390     0.01265
  6.400     0.01368
  6.410     0.01411
  6.420     0.01214
  6.430     0.01277
  6.440     0.01245
  6.450     0.01223
  6.460     0.01157
  6.470     0.01155
  6.480     0.01133
  6.490     0.01250
  6.500     0.01184
  6.510     0.01222
  6.520     0.01274
  6.530     0.01243
  6.540     0.01314
  6.550     0.01268
  6.560     0.01257
  6.570     0.01308
  6.580     0.01306
  6.590     0.01368
  6.600     0.01404
  6.610     0.01509
  6.620     0.01410
  6.630     0.01427
  6.640     0.01411
  6.650     0.01413
  6.660     0.01541
  6.670     0.01577
  6.680     0.01743
  6.690     0.01582
  6.700     0.01513
  6.710     0.01467
  6.720     0.01351
  6.730     0.01477
  6.740     0.01508
  6.750     0.01701
  6.760     0.01585
  6.770     0.01691
  6.780     0.01646
  6.790     0.01658
  6.800     0.01618
  6.810     0.01714
  6.820     0.01651
  6.830     0.01850
  6.840     0.01819
  6.850     0.01756
  6.860     0.01805
  6.870     0.02124
  6.880     0.02037
  6.890     0.02062
  6.900     0.02152
  6.910     0.02242
  6.920     0.02475
  6.930     0.02254
  6.940     0.02639
  6.950     0.02543
  6.960     0.02866
  6.970     0.02858
  6.980     0.02863
  6.990     0.03239
  7.000     0.03331
  7.010     0.03569
  7.020     0.03546
  7.030     0.03632
  7.040     0.03572
  7.050     0.03867
  7.060     0.04279
  7.070     0.04455
  7.080     0.04603
  7.090     0.04474
  7.100     0.04748
  7.110     0.05021
  7.120     0.04933
  7.130     0.05196
  7.140     0.05018
  7.150     0.05136
  7.160     0.05250
  7.170     0.05108
  7.180     0.05347
  7.190     0.05277
  7.200     0.05341
  7.210     0.05125
  7.220     0.05477
  7.230     0.05053
  7.240     0.04997
  7.250     0.05026
  7.260     0.05089
  7.270     0.04990
  7.280     0.04996
  7.290     0.04686
  7.300     0.04569
  7.310     0.04212
  7.320     0.04342
  7.330     0.04043
  7.340     0.03959
  7.350     0.03976
  7.360     0.03565
  7.370     0.03577
  7.380     0.03412
  7.390     0.03329
  7.400     0.03290
  7.410     0.03194
  7.420     0.02939
  7.430     0.02543
  7.440     0.02410
  7.450     0.02316
  7.460     0.02408
  7.470     0.02284
  7.480     0.01955
  7.490     0.02034
  7.500     0.01984
  7.510     0.01862
  7.520     0.01821
  7.530     0.01640
  7.540     0.01659
  7.550     0.01636
  7.560     0.01536
  7.570     0.01415
  7.580     0.01485
  7.590     0.01437
  7.600     0.01452
  7.610     0.01294
  7.620     0.01326
  7.630     0.01341
  7.640     0.01377
  7.650     0.01371
  7.660     0.01218
  7.670     0.01250
  7.680     0.01378
  7.690     0.01335
  7.700     0.01241
  7.710     0.01140
  7.720     0.01413
  7.730     0.01386
  7.740     0.01326
  7.750     0.01432
  7.760     0.01331
  7.770     0.01267
  7.780     0.01274
  7.790     0.01211
  7.800     0.01480
  7.810     0.01495
  7.820     0.01448
  7.830     0.01393
  7.840     0.01440
  7.850     0.01581
  7.860     0.01771
  7.870     0.01712
  7.880     0.01636
  7.890     0.01846
  7.900     0.01705
  7.910     0.02019
  7.920     0.02001
  7.930     0.01897
  7.940     0.02145
  7.950     0.02191
  7.960     0.02337
  7.970     0.02237
  7.980     0.02596
  7.990     0.02425
  8.000     0.02562
  8.010     0.02751
  8.020     0.02891
  8.030     0.02676
  8.040     0.02880
  8.050     0.02972
  8.060     0.03219
  8.070     0.02933
  8.080     0.03136
  8.090     0.03283
  8.100     0.03176
  8.110     0.03362
  8.120     0.03286
  8.130     0.03420
  8.140     0.03574
  8.150     0.03365
  8.160     0.03325
  8.170     0.03443
  8.180     0.03541
  8.190     0.03489
  8.200     0.03348
  8.210     0.03563
  8.220     0.03496
  8.230     0.03219
  8.240     0.03215
  8.250     0.03309
  8.260     0.03347
  8.270     0.03324
  8.280     0.03049
  8.290     0.03029
  8.300     0.03068
  8.310     0.02821
  8.320     0.03150
  8.330     0.03046
  8.340     0.02842
  8.350     0.02850
  8.360     0.02916
  8.370     0.02805
  8.380     0.02649
  8.390     0.02680
  8.400     0.02654
  8.410     0.02658
  8.420     0.02647
  8.430     0.02732
  8.440     0.02702
  8.450     0.02509
  8.460     0.02563
  8.470     0.02719
  8.480     0.02742
  8.490     0.02588
  8.500     0.02713
  8.510     0.02570
  8.520     0.02695
  8.530     0.02730
  8.540     0.02768
  8.550     0.02525
  8.560     0.02593
  8.570     0.02631
  8.580     0.02714
  8.590     0.02644
  8.600     0.02547
  8.610     0.02660
  8.620     0.02660
  8.630     0.02490
  8.640     0.02565
  8.650     0.02610
  8.660     0.02530
  8.670     0.02467
  8.680     0.02487
  8.690     0.02307
  8.700     0.02437
  8.710     0.02475
  8.720     0.02508
  8.730     0.02425
  8.740     0.02371
  8.750     0.02496
  8.760     0.02622
  8.770     0.02326
  8.780     0.02652
  8.790     0.02518
  8.800     0.02347
  8.810     0.02363
  8.820     0.02375
  8.830     0.02401
  8.840     0.02347
  8.850     0.02410
  8.860     0.02429
  8.870     0.02488
  8.880     0.02510
  8.890     0.02435
  8.900     0.02490
  8.910     0.02603
  8.920     0.02557
  8.930     0.02500
  8.940     0.02558
  8.950     0.02552
  8.960     0.02577
  8.970     0.02560
  8.980     0.02600
  8.990     0.02922
  9.000     0.02477
  9.010     0.02670
  9.020     0.02770
  9.030     0.02582
  9.040     0.02540
  9.050     0.02662
  9.060     0.02606
  9.070     0.02539
  9.080     0.02593
  9.090     0.02615
  9.100     0.02622
  9.110     0.02739
  9.120     0.02634
  9.130     0.02656
  9.140     0.02639
  9.150     0.02321
  9.160     0.02563
  9.170     0.02529
  9.180     0.02498
  9.190     0.02454
  9.200     0.02667
  9.210     0.02504
  9.220     0.02567
  9.230     0.02346
  9.240     0.02298
  9.250     0.02403
  9.260     0.02639
  9.270     0.02581
  9.280     0.02609
  9.290     0.02503
  9.300     0.02583
  9.310     0.02508
  9.320     0.02798
  9.330     0.02747
  9.340     0.02837
  9.350     0.02741
  9.360     0.02878
  9.370     0.02817
  9.380     0.02879
  9.390     0.02845
  9.400     0.02911
  9.410     0.03252
  9.420     0.02880
  9.430     0.03095
  9.440     0.03143
  9.450     0.03106
  9.460     0.03065
  9.470     0.03245
  9.480     0.03265
  9.490     0.03278
  9.500     0.03123
  9.510     0.03416
  9.520     0.03467
  9.530     0.03581
  9.540     0.03692
  9.550     0.03782
  9.560     0.03553
  9.570     0.03663
  9.580     0.03904
  9.590     0.03997
  9.600     0.03932
  9.610     0.04118
  9.620     0.04454
  9.630     0.04273
  9.640     0.04392
  9.650     0.04517
  9.660     0.04436
  9.670     0.04524
  9.680     0.04543
  9.690     0.04608
  9.700     0.04556
  9.710     0.04829
  9.720     0.04778
  9.730     0.04987
  9.740     0.04933
  9.750     0.05050
  9.760     0.05169
  9.770     0.05226
  9.780     0.04991
  9.790     0.04849
  9.800     0.05093
  9.810     0.05110
  9.820     0.05010
  9.830     0.04790
  9.840     0.04840
  9.850     0.04894
  9.860     0.04723
  9.870     0.04728
  9.880     0.04607
  9.890     0.04563
  9.900     0.04536
  9.910     0.04262
  9.920     0.04058
  9.930     0.04367
  9.940     0.04075
  9.950     0.03871
  9.960     0.03855
  9.970     0.03735
  9.980     0.03561
  9.990     0.03329
