  #r(a)       PDF
  0.010     0.00000
  0.020     0.00000
  0.030     0.00000
  0.040     0.00000
  0.050     0.00000
  0.060     0.00000
  0.070     0.00000
  0.080     0.00000
  0.090     0.00000
  0.100     0.00000
  0.110     0.00000
  0.120     0.00000
  0.130     0.00000
  0.140     0.00000
  0.150     0.00000
  0.160     0.00000
  0.170     0.00000
  0.180     0.00000
  0.190     0.00000
  0.200     0.00000
  0.210     0.00000
  0.220     0.00000
  0.230     0.00000
  0.240     0.00000
  0.250     0.00000
  0.260     0.00000
  0.270     0.00000
  0.280     0.00000
  0.290     0.00000
  0.300     0.00000
  0.310     0.00000
  0.320     0.00000
  0.330     0.00000
  0.340     0.00000
  0.350     0.00000
  0.360     0.00000
  0.370     0.00000
  0.380     0.00000
  0.390     0.00000
  0.400     0.00000
  0.410     0.00000
  0.420     0.00000
  0.430     0.00000
  0.440     0.00000
  0.450     0.00000
  0.460     0.00000
  0.470     0.00000
  0.480     0.00000
  0.490     0.00000
  0.500     0.00000
  0.510     0.00000
  0.520     0.00000
  0.530     0.00000
  0.540     0.00000
  0.550     0.00000
  0.560     0.00000
  0.570     0.00000
  0.580     0.00000
  0.590     0.00000
  0.600     0.00000
  0.610     0.00000
  0.620     0.00000
  0.630     0.00000
  0.640     0.00000
  0.650     0.00000
  0.660     0.00000
  0.670     0.00000
  0.680     0.00000
  0.690     0.00000
  0.700     0.00000
  0.710     0.00000
  0.720     0.00000
  0.730     0.00000
  0.740     0.00000
  0.750     0.00000
  0.760     0.00000
  0.770     0.00000
  0.780     0.00000
  0.790     0.00000
  0.800     0.00000
  0.810     0.00000
  0.820     0.00000
  0.830     0.00000
  0.840     0.00000
  0.850     0.00000
  0.860     0.00000
  0.870     0.00000
  0.880     0.00000
  0.890     0.00000
  0.900     0.00000
  0.910     0.00000
  0.920     0.00000
  0.930     0.00000
  0.940     0.00000
  0.950     0.00000
  0.960     0.00000
  0.970     0.00000
  0.980     0.00000
  0.990     0.00000
  1.000     0.00000
  1.010     0.00000
  1.020     0.00000
  1.030     0.00000
  1.040     0.00000
  1.050     0.00000
  1.060     0.00000
  1.070     0.00000
  1.080     0.00000
  1.090     0.00000
  1.100     0.00000
  1.110     0.00000
  1.120     0.00000
  1.130     0.00000
  1.140     0.00000
  1.150     0.00000
  1.160     0.00000
  1.170     0.00000
  1.180     0.00000
  1.190     0.00000
  1.200     0.00000
  1.210     0.00000
  1.220     0.00000
  1.230     0.00000
  1.240     0.00000
  1.250     0.00000
  1.260     0.00000
  1.270     0.00000
  1.280     0.00000
  1.290     0.00000
  1.300     0.00000
  1.310     0.00000
  1.320     0.00000
  1.330     0.00000
  1.340     0.00000
  1.350     0.00000
  1.360     0.00000
  1.370     0.00000
  1.380     0.00000
  1.390     0.00000
  1.400     0.00000
  1.410     0.00000
  1.420     0.00000
  1.430     0.00000
  1.440     0.00000
  1.450     0.00000
  1.460     0.00000
  1.470     0.00000
  1.480     0.00000
  1.490     0.00000
  1.500     0.00000
  1.510     0.00000
  1.520     0.00000
  1.530     0.00000
  1.540     0.00000
  1.550     0.00000
  1.560     0.00000
  1.570     0.00000
  1.580     0.00000
  1.590     0.00000
  1.600     0.00000
  1.610     0.00000
  1.620     0.00000
  1.630     0.00000
  1.640     0.00000
  1.650     0.00000
  1.660     0.00000
  1.670     0.00000
  1.680     0.00000
  1.690     0.00000
  1.700     0.00000
  1.710     0.00000
  1.720     0.00000
  1.730     0.00000
  1.740     0.00000
  1.750     0.00000
  1.760     0.00000
  1.770     0.00000
  1.780     0.00000
  1.790     0.00000
  1.800     0.00000
  1.810     0.00000
  1.820     0.00000
  1.830     0.00000
  1.840     0.00000
  1.850     0.00000
  1.860     0.00000
  1.870     0.00000
  1.880     0.00000
  1.890     0.00000
  1.900     0.00000
  1.910     0.00000
  1.920     0.00000
  1.930     0.00000
  1.940     0.00000
  1.950     0.00000
  1.960     0.00000
  1.970     0.00000
  1.980     0.00000
  1.990     0.00000
  2.000     0.00000
  2.010     0.00000
  2.020     0.00000
  2.030     0.00000
  2.040     0.00000
  2.050     0.00000
  2.060     0.00000
  2.070     0.00000
  2.080     0.00000
  2.090     0.00000
  2.100     0.00000
  2.110     0.00000
  2.120     0.00000
  2.130     0.00000
  2.140     0.00000
  2.150     0.00000
  2.160     0.00000
  2.170     0.00000
  2.180     0.00000
  2.190     0.00010
  2.200     0.00000
  2.210     0.00000
  2.220     0.00000
  2.230     0.00039
  2.240     0.00000
  2.250     0.00000
  2.260     0.00019
  2.270     0.00019
  2.280     0.00029
  2.290     0.00038
  2.300     0.00019
  2.310     0.00047
  2.320     0.00104
  2.330     0.00066
  2.340     0.00084
  2.350     0.00121
  2.360     0.00074
  2.370     0.00258
  2.380     0.00184
  2.390     0.00265
  2.400     0.00310
  2.410     0.00417
  2.420     0.00415
  2.430     0.00549
  2.440     0.00717
  2.450     0.00910
  2.460     0.00977
  2.470     0.01398
  2.480     0.01366
  2.490     0.01658
  2.500     0.02080
  2.510     0.02280
  2.520     0.02644
  2.530     0.02505
  2.540     0.03062
  2.550     0.03196
  2.560     0.03645
  2.570     0.04064
  2.580     0.04023
  2.590     0.04590
  2.600     0.04420
  2.610     0.05148
  2.620     0.05321
  2.630     0.05226
  2.640     0.05463
  2.650     0.05755
  2.660     0.06120
  2.670     0.05614
  2.680     0.05723
  2.690     0.05410
  2.700     0.06151
  2.710     0.05378
  2.720     0.05583
  2.730     0.05267
  2.740     0.05319
  2.750     0.04680
  2.760     0.04695
  2.770     0.04528
  2.780     0.04213
  2.790     0.04026
  2.800     0.03769
  2.810     0.03398
  2.820     0.03045
  2.830     0.02996
  2.840     0.02939
  2.850     0.02308
  2.860     0.02277
  2.870     0.02261
  2.880     0.01935
  2.890     0.01860
  2.900     0.01439
  2.910     0.01562
  2.920     0.01197
  2.930     0.01238
  2.940     0.01011
  2.950     0.00978
  2.960     0.00886
  2.970     0.00714
  2.980     0.00697
  2.990     0.00585
  3.000     0.00612
  3.010     0.00581
  3.020     0.00412
  3.030     0.00505
  3.040     0.00252
  3.050     0.00358
  3.060     0.00257
  3.070     0.00235
  3.080     0.00298
  3.090     0.00290
  3.100     0.00275
  3.110     0.00155
  3.120     0.00189
  3.130     0.00209
  3.140     0.00209
  3.150     0.00173
  3.160     0.00201
  3.170     0.00165
  3.180     0.00096
  3.190     0.00192
  3.200     0.00130
  3.210     0.00068
  3.220     0.00075
  3.230     0.00149
  3.240     0.00155
  3.250     0.00148
  3.260     0.00127
  3.270     0.00100
  3.280     0.00113
  3.290     0.00046
  3.300     0.00086
  3.310     0.00125
  3.320     0.00072
  3.330     0.00125
  3.340     0.00098
  3.350     0.00104
  3.360     0.00078
  3.370     0.00084
  3.380     0.00123
  3.390     0.00090
  3.400     0.00103
  3.410     0.00070
  3.420     0.00109
  3.430     0.00121
  3.440     0.00184
  3.450     0.00152
  3.460     0.00177
  3.470     0.00214
  3.480     0.00270
  3.490     0.00244
  3.500     0.00212
  3.510     0.00243
  3.520     0.00242
  3.530     0.00365
  3.540     0.00333
  3.550     0.00339
  3.560     0.00417
  3.570     0.00441
  3.580     0.00562
  3.590     0.00487
  3.600     0.00570
  3.610     0.00672
  3.620     0.00604
  3.630     0.00710
  3.640     0.00876
  3.650     0.00868
  3.660     0.00902
  3.670     0.00893
  3.680     0.00956
  3.690     0.01173
  3.700     0.01122
  3.710     0.01137
  3.720     0.01392
  3.730     0.01371
  3.740     0.01408
  3.750     0.01515
  3.760     0.01482
  3.770     0.01658
  3.780     0.01653
  3.790     0.01626
  3.800     0.01650
  3.810     0.01503
  3.820     0.01671
  3.830     0.01289
  3.840     0.01462
  3.850     0.01374
  3.860     0.01630
  3.870     0.01581
  3.880     0.01498
  3.890     0.01466
  3.900     0.01423
  3.910     0.01498
  3.920     0.01327
  3.930     0.01190
  3.940     0.01148
  3.950     0.01189
  3.960     0.00993
  3.970     0.00985
  3.980     0.01005
  3.990     0.00876
  4.000     0.00809
  4.010     0.00703
  4.020     0.00625
  4.030     0.00640
  4.040     0.00606
  4.050     0.00502
  4.060     0.00549
  4.070     0.00531
  4.080     0.00573
  4.090     0.00417
  4.100     0.00464
  4.110     0.00473
  4.120     0.00387
  4.130     0.00312
  4.140     0.00296
  4.150     0.00295
  4.160     0.00341
  4.170     0.00252
  4.180     0.00256
  4.190     0.00282
  4.200     0.00307
  4.210     0.00306
  4.220     0.00290
  4.230     0.00253
  4.240     0.00242
  4.250     0.00293
  4.260     0.00318
  4.270     0.00353
  4.280     0.00363
  4.290     0.00331
  4.300     0.00432
  4.310     0.00441
  4.320     0.00531
  4.330     0.00449
  4.340     0.00624
  4.350     0.00608
  4.360     0.00672
  4.370     0.00830
  4.380     0.00793
  4.390     0.00886
  4.400     0.01127
  4.410     0.01263
  4.420     0.01221
  4.430     0.01524
  4.440     0.01673
  4.450     0.01871
  4.460     0.01808
  4.470     0.02087
  4.480     0.02346
  4.490     0.02672
  4.500     0.02467
  4.510     0.02791
  4.520     0.03152
  4.530     0.03242
  4.540     0.03514
  4.550     0.03703
  4.560     0.03987
  4.570     0.04298
  4.580     0.04299
  4.590     0.04427
  4.600     0.04408
  4.610     0.04555
  4.620     0.04971
  4.630     0.04738
  4.640     0.05190
  4.650     0.05131
  4.660     0.05177
  4.670     0.04913
  4.680     0.05066
  4.690     0.05060
  4.700     0.05119
  4.710     0.04881
  4.720     0.04884
  4.730     0.04624
  4.740     0.04638
  4.750     0.04196
  4.760     0.04278
  4.770     0.04457
  4.780     0.04005
  4.790     0.03704
  4.800     0.03701
  4.810     0.03512
  4.820     0.03133
  4.830     0.03009
  4.840     0.02849
  4.850     0.02924
  4.860     0.02558
  4.870     0.02392
  4.880     0.02055
  4.890     0.01917
  4.900     0.01918
  4.910     0.01682
  4.920     0.01634
  4.930     0.01441
  4.940     0.01296
  4.950     0.01338
  4.960     0.01079
  4.970     0.01038
  4.980     0.00961
  4.990     0.00832
  5.000     0.00769
  5.010     0.00885
  5.020     0.00779
  5.030     0.00686
  5.040     0.00759
  5.050     0.00762
  5.060     0.00751
  5.070     0.00728
  5.080     0.00632
  5.090     0.00597
  5.100     0.00857
  5.110     0.00684
  5.120     0.00828
  5.130     0.00788
  5.140     0.00799
  5.150     0.00895
  5.160     0.00906
  5.170     0.01061
  5.180     0.01063
  5.190     0.00998
  5.200     0.01214
  5.210     0.01221
  5.220     0.01189
  5.230     0.01466
  5.240     0.01535
  5.250     0.01494
  5.260     0.01720
  5.270     0.01617
  5.280     0.01643
  5.290     0.01789
  5.300     0.01938
  5.310     0.01996
  5.320     0.02045
  5.330     0.02017
  5.340     0.02124
  5.350     0.02112
  5.360     0.02242
  5.370     0.02189
  5.380     0.02291
  5.390     0.02274
  5.400     0.02096
  5.410     0.02173
  5.420     0.02278
  5.430     0.02101
  5.440     0.02149
  5.450     0.02005
  5.460     0.02029
  5.470     0.02037
  5.480     0.01994
  5.490     0.01751
  5.500     0.01744
  5.510     0.01693
  5.520     0.01496
  5.530     0.01462
  5.540     0.01475
  5.550     0.01272
  5.560     0.01207
  5.570     0.01291
  5.580     0.01159
  5.590     0.01149
  5.600     0.01022
  5.610     0.01013
  5.620     0.01011
  5.630     0.00978
  5.640     0.00829
  5.650     0.00855
  5.660     0.00815
  5.670     0.00802
  5.680     0.00746
  5.690     0.00787
  5.700     0.00866
  5.710     0.00804
  5.720     0.00936
  5.730     0.00854
  5.740     0.01009
  5.750     0.01034
  5.760     0.01043
  5.770     0.01076
  5.780     0.01198
  5.790     0.01177
  5.800     0.01296
  5.810     0.01392
  5.820     0.01472
  5.830     0.01705
  5.840     0.01643
  5.850     0.01860
  5.860     0.02006
  5.870     0.02144
  5.880     0.02285
  5.890     0.02296
  5.900     0.02581
  5.910     0.02681
  5.920     0.02680
  5.930     0.02977
  5.940     0.02947
  5.950     0.03033
  5.960     0.03131
  5.970     0.03276
  5.980     0.03442
  5.990     0.03444
  6.000     0.03649
  6.010     0.03825
  6.020     0.03528
  6.030     0.03667
  6.040     0.03925
  6.050     0.03464
  6.060     0.03494
  6.070     0.03524
  6.080     0.03385
  6.090     0.03380
  6.100     0.03260
  6.110     0.03272
  6.120     0.03221
  6.130     0.03009
  6.140     0.02779
  6.150     0.02956
  6.160     0.02661
  6.170     0.02600
  6.180     0.02422
  6.190     0.02393
  6.200     0.02192
  6.210     0.02058
  6.220     0.02069
  6.230     0.01894
  6.240     0.01684
  6.250     0.01633
  6.260     0.01372
  6.270     0.01405
  6.280     0.01465
  6.290     0.01403
  6.300     0.01152
  6.310     0.01125
  6.320     0.01203
  6.330     0.01115
  6.340     0.00989
  6.350     0.00953
  6.360     0.01038
  6.370     0.00964
  6.380     0.00918
  6.390     0.00988
  6.400     0.00884
  6.410     0.00822
  6.420     0.00984
  6.430     0.00992
  6.440     0.00953
  6.450     0.01040
  6.460     0.00988
  6.470     0.00993
  6.480     0.00944
  6.490     0.01074
  6.500     0.01177
  6.510     0.01208
  6.520     0.01277
  6.530     0.01141
  6.540     0.01176
  6.550     0.01201
  6.560     0.01149
  6.570     0.01267
  6.580     0.01378
  6.590     0.01300
  6.600     0.01371
  6.610     0.01276
  6.620     0.01353
  6.630     0.01295
  6.640     0.01241
  6.650     0.01400
  6.660     0.01194
  6.670     0.01229
  6.680     0.01171
  6.690     0.01225
  6.700     0.01226
  6.710     0.01231
  6.720     0.01242
  6.730     0.01188
  6.740     0.01242
  6.750     0.01233
  6.760     0.01164
  6.770     0.01262
  6.780     0.01147
  6.790     0.01323
  6.800     0.01391
  6.810     0.01344
  6.820     0.01445
  6.830     0.01587
  6.840     0.01492
  6.850     0.01681
  6.860     0.01746
  6.870     0.01816
  6.880     0.01941
  6.890     0.01985
  6.900     0.02068
  6.910     0.02527
  6.920     0.02510
  6.930     0.02753
  6.940     0.02686
  6.950     0.02940
  6.960     0.03152
  6.970     0.03380
  6.980     0.03563
  6.990     0.03689
  7.000     0.04039
  7.010     0.04214
  7.020     0.04598
  7.030     0.04610
  7.040     0.04823
  7.050     0.04835
  7.060     0.05336
  7.070     0.05140
  7.080     0.05864
  7.090     0.05495
  7.100     0.05807
  7.110     0.05649
  7.120     0.05776
  7.130     0.06172
  7.140     0.05894
  7.150     0.05871
  7.160     0.05918
  7.170     0.05617
  7.180     0.05435
  7.190     0.05309
  7.200     0.05396
  7.210     0.05195
  7.220     0.05296
  7.230     0.05114
  7.240     0.04675
  7.250     0.04518
  7.260     0.04388
  7.270     0.04028
  7.280     0.03974
  7.290     0.03768
  7.300     0.03625
  7.310     0.03426
  7.320     0.03128
  7.330     0.03053
  7.340     0.02977
  7.350     0.02705
  7.360     0.02544
  7.370     0.02446
  7.380     0.02256
  7.390     0.02235
  7.400     0.02008
  7.410     0.01881
  7.420     0.01758
  7.430     0.01732
  7.440     0.01583
  7.450     0.01607
  7.460     0.01535
  7.470     0.01337
  7.480     0.01271
  7.490     0.01196
  7.500     0.01320
  7.510     0.01242
  7.520     0.01130
  7.530     0.01297
  7.540     0.01185
  7.550     0.01230
  7.560     0.01168
  7.570     0.01106
  7.580     0.01075
  7.590     0.01019
  7.600     0.01029
  7.610     0.01025
  7.620     0.01006
  7.630     0.01137
  7.640     0.01084
  7.650     0.01088
  7.660     0.01081
  7.670     0.01026
  7.680     0.01007
  7.690     0.01037
  7.700     0.01047
  7.710     0.01154
  7.720     0.01098
  7.730     0.01052
  7.740     0.01042
  7.750     0.01063
  7.760     0.01126
  7.770     0.01139
  7.780     0.01211
  7.790     0.01170
  7.800     0.01244
  7.810     0.01273
  7.820     0.01352
  7.830     0.01353
  7.840     0.01460
  7.850     0.01564
  7.860     0.01612
  7.870     0.01708
  7.880     0.01866
  7.890     0.01894
  7.900     0.01947
  7.910     0.02124
  7.920     0.02158
  7.930     0.02361
  7.940     0.02444
  7.950     0.02674
  7.960     0.02605
  7.970     0.02936
  7.980     0.03009
  7.990     0.03057
  8.000     0.03029
  8.010     0.03121
  8.020     0.03381
  8.030     0.03524
  8.040     0.03416
  8.050     0.03569
  8.060     0.03657
  8.070     0.03737
  8.080     0.03664
  8.090     0.03725
  8.100     0.03696
  8.110     0.03621
  8.120     0.03800
  8.130     0.03819
  8.140     0.03605
  8.150     0.03628
  8.160     0.03529
  8.170     0.03472
  8.180     0.03307
  8.190     0.03460
  8.200     0.03155
  8.210     0.03151
  8.220     0.03036
  8.230     0.03061
  8.240     0.02814
  8.250     0.02906
  8.260     0.02815
  8.270     0.02920
  8.280     0.02742
  8.290     0.02628
  8.300     0.02622
  8.310     0.02519
  8.320     0.02461
  8.330     0.02395
  8.340     0.02353
  8.350     0.02460
  8.360     0.02326
  8.370     0.02441
  8.380     0.02527
  8.390     0.02409
  8.400     0.02424
  8.410     0.02484
  8.420     0.02582
  8.430     0.02600
  8.440     0.02514
  8.450     0.02545
  8.460     0.02516
  8.470     0.02606
  8.480     0.02695
  8.490     0.02602
  8.500     0.02625
  8.510     0.02729
  8.520     0.02619
  8.530     0.02626
  8.540     0.02610
  8.550     0.02591
  8.560     0.02588
  8.570     0.02636
  8.580     0.02458
  8.590     0.02584
  8.600     0.02434
  8.610     0.02426
  8.620     0.02274
  8.630     0.02410
  8.640     0.02350
  8.650     0.02251
  8.660     0.02382
  8.670     0.02188
  8.680     0.02195
  8.690     0.02168
  8.700     0.02240
  8.710     0.02120
  8.720     0.02190
  8.730     0.02100
  8.740     0.02108
  8.750     0.02083
  8.760     0.02115
  8.770     0.02188
  8.780     0.02250
  8.790     0.02063
  8.800     0.02183
  8.810     0.02165
  8.820     0.02163
  8.830     0.02279
  8.840     0.02343
  8.850     0.02276
  8.860     0.02286
  8.870     0.02296
  8.880     0.02480
  8.890     0.02578
  8.900     0.02507
  8.910     0.02367
  8.920     0.02484
  8.930     0.02520
  8.940     0.02481
  8.950     0.02559
  8.960     0.02458
  8.970     0.02521
  8.980     0.02555
  8.990     0.02399
  9.000     0.02484
  9.010     0.02333
  9.020     0.02289
  9.030     0.02393
  9.040     0.02405
  9.050     0.02265
  9.060     0.02250
  9.070     0.02284
  9.080     0.02243
  9.090     0.02216
  9.100     0.02060
  9.110     0.02012
  9.120     0.02065
  9.130     0.02044
  9.140     0.02147
  9.150     0.02264
  9.160     0.02061
  9.170     0.02154
  9.180     0.02083
  9.190     0.02268
  9.200     0.02197
  9.210     0.02055
  9.220     0.02330
  9.230     0.02242
  9.240     0.02396
  9.250     0.02239
  9.260     0.02409
  9.270     0.02433
  9.280     0.02722
  9.290     0.02493
  9.300     0.02624
  9.310     0.02551
  9.320     0.02661
  9.330     0.02623
  9.340     0.02660
  9.350     0.02692
  9.360     0.02724
  9.370     0.02854
  9.380     0.02828
  9.390     0.02788
  9.400     0.02855
  9.410     0.02849
  9.420     0.02934
  9.430     0.03017
  9.440     0.02912
  9.450     0.03159
  9.460     0.03220
  9.470     0.03203
  9.480     0.03308
  9.490     0.03221
  9.500     0.03439
  9.510     0.03669
  9.520     0.03624
  9.530     0.03575
  9.540     0.03745
  9.550     0.04153
  9.560     0.04208
  9.570     0.04379
  9.580     0.04404
  9.590     0.04530
  9.600     0.04750
  9.610     0.04855
  9.620     0.05002
  9.630     0.05108
  9.640     0.05245
  9.650     0.05086
  9.660     0.05472
  9.670     0.05604
  9.680     0.05666
  9.690     0.05678
  9.700     0.05731
  9.710     0.05851
  9.720     0.05764
  9.730     0.05776
  9.740     0.05662
  9.750     0.05708
  9.760     0.05702
  9.770     0.05446
  9.780     0.05487
  9.790     0.05276
  9.800     0.05059
  9.810     0.04900
  9.820     0.04733
  9.830     0.04635
  9.840     0.04548
  9.850     0.04406
  9.860     0.04395
  9.870     0.03881
  9.880     0.03862
  9.890     0.03617
  9.900     0.03470
  9.910     0.03184
  9.920     0.03124
  9.930     0.03019
  9.940     0.02682
  9.950     0.02706
  9.960     0.02525
  9.970     0.02301
  9.980     0.02104
  9.990     0.02054
